#  Fermi level (eV): -17.019
#  Charge transfer :  -0.164
#    Electron counts for each orbital momentum:
#       0      1.834
#       1      4.330
#       2     -0.000
#  Number of atoms in cluster:  57
#  Lorentzian broadening with HWHH     0.1000 eV
# -----------------------------------------------------------------------
#      e        sDOS           pDOS          dDOS          fDOS    @#
   -30.0000  1.541129E-03  2.899417E-03  1.401473E-04
   -29.8997  1.495432E-03  2.983986E-03  1.409292E-04
   -29.7993  1.451974E-03  3.072621E-03  1.417213E-04
   -29.6990  1.410614E-03  3.165614E-03  1.425238E-04
   -29.5987  1.371231E-03  3.263193E-03  1.433369E-04
   -29.4983  1.333770E-03  3.365804E-03  1.441610E-04
   -29.3980  1.298065E-03  3.473635E-03  1.449962E-04
   -29.2977  1.264074E-03  3.587277E-03  1.458429E-04
   -29.1973  1.231645E-03  3.707021E-03  1.467015E-04
   -29.0970  1.200758E-03  3.833463E-03  1.475722E-04
   -28.9967  1.171312E-03  3.967081E-03  1.484554E-04
   -28.8963  1.143184E-03  4.108307E-03  1.493515E-04
   -28.7960  1.116381E-03  4.257873E-03  1.502609E-04
   -28.6957  1.090833E-03  4.416720E-03  1.511838E-04
   -28.5953  1.066460E-03  4.585192E-03  1.521209E-04
   -28.4950  1.043307E-03  4.764753E-03  1.530725E-04
   -28.3946  1.021150E-03  4.955699E-03  1.540390E-04
   -28.2943  1.000147E-03  5.159856E-03  1.550211E-04
   -28.1940  9.801346E-04  5.377954E-03  1.560192E-04
   -28.0936  9.611310E-04  5.611675E-03  1.570338E-04
   -27.9933  9.430727E-04  5.862195E-03  1.580657E-04
   -27.8930  9.260236E-04  6.131951E-03  1.591154E-04
   -27.7926  9.098968E-04  6.422811E-03  1.601836E-04
   -27.6923  8.947137E-04  6.737653E-03  1.612710E-04
   -27.5920  8.804280E-04  7.078032E-03  1.623784E-04
   -27.4916  8.670895E-04  7.448523E-03  1.635068E-04
   -27.3913  8.546282E-04  7.851481E-03  1.646569E-04
   -27.2910  8.431674E-04  8.292637E-03  1.658298E-04
   -27.1906  8.327476E-04  8.777828E-03  1.670265E-04
   -27.0903  8.232814E-04  9.311384E-03  1.682483E-04
   -26.9900  8.147530E-04  9.899823E-03  1.694965E-04
   -26.8896  8.075088E-04  1.055661E-02  1.707724E-04
   -26.7893  8.014174E-04  1.128901E-02  1.720777E-04
   -26.6890  7.965752E-04  1.211105E-02  1.734141E-04
   -26.5886  7.931776E-04  1.304007E-02  1.747836E-04
   -26.4883  7.915140E-04  1.410081E-02  1.761886E-04
   -26.3880  7.913564E-04  1.530857E-02  1.776315E-04
   -26.2876  7.938746E-04  1.672384E-02  1.791154E-04
   -26.1873  7.988454E-04  1.837660E-02  1.806439E-04
   -26.0870  8.063672E-04  2.031279E-02  1.822213E-04
   -25.9866  8.173588E-04  2.262477E-02  1.838528E-04
   -25.8863  8.344503E-04  2.551126E-02  1.855444E-04
   -25.7860  8.547840E-04  2.893770E-02  1.873054E-04
   -25.6856  8.853157E-04  3.341250E-02  1.891484E-04
   -25.5853  9.286498E-04  3.932802E-02  1.911075E-04
   -25.4849  1.024327E-03  4.955527E-02  1.926573E-04
   -25.3846  1.079230E-03  5.794545E-02  1.954892E-04
   -25.2843  1.234226E-03  7.586666E-02  1.981789E-04
   -25.1839  1.465226E-03  1.036696E-01  2.010740E-04
   -25.0836  1.850628E-03  1.522839E-01  2.047659E-04
   -24.9833  2.544126E-03  2.451046E-01  2.092346E-04
   -24.8829  3.877113E-03  4.444840E-01  2.145771E-04
   -24.7826  5.732205E-03  8.413195E-01  2.208895E-04
   -24.6823  5.689652E-03  1.286051E+00  2.282562E-04
   -24.5819  5.204352E-03  1.399410E+00  2.367546E-04
   -24.4816  6.947180E-03  1.094726E+00  2.464556E-04
   -24.3813  1.054154E-02  7.975819E-01  2.574249E-04
   -24.2809  1.368801E-02  6.325964E-01  2.697234E-04
   -24.1806  1.682151E-02  5.809482E-01  2.834082E-04
   -24.0803  1.859160E-02  6.410900E-01  2.985330E-04
   -23.9799  2.286603E-02  7.243359E-01  3.151481E-04
   -23.8796  2.280768E-02  6.954597E-01  3.333013E-04
   -23.7793  1.762479E-02  6.275610E-01  3.530377E-04
   -23.6789  1.101565E-02  5.435483E-01  3.744002E-04
   -23.5786  7.311629E-03  4.953075E-01  3.974296E-04
   -23.4783  5.984792E-03  4.910893E-01  4.221647E-04
   -23.3779  5.938083E-03  5.350760E-01  4.486427E-04
   -23.2776  6.389729E-03  6.046877E-01  4.768990E-04
   -23.1773  6.208845E-03  6.325468E-01  5.069674E-04
   -23.0769  5.851456E-03  6.166088E-01  5.388804E-04
   -22.9766  5.567320E-03  5.728966E-01  5.726690E-04
   -22.8763  5.091432E-03  5.591629E-01  6.083631E-04
   -22.7759  4.676396E-03  6.049208E-01  6.459912E-04
   -22.6756  4.528190E-03  6.911422E-01  6.855808E-04
   -22.5753  4.601603E-03  8.032697E-01  7.271583E-04
   -22.4749  4.712687E-03  9.931728E-01  7.707491E-04
   -22.3746  4.709525E-03  1.249701E+00  8.163775E-04
   -22.2742  4.752399E-03  1.334280E+00  8.640671E-04
   -22.1739  5.278648E-03  1.281967E+00  9.138404E-04
   -22.0736  6.298327E-03  1.361944E+00  9.657192E-04
   -21.9732  6.713943E-03  1.427731E+00  1.019724E-03
   -21.8729  6.068518E-03  1.405958E+00  1.075876E-03
   -21.7726  5.280047E-03  1.397291E+00  1.134194E-03
   -21.6722  4.506592E-03  1.455856E+00  1.194696E-03
   -21.5719  4.043774E-03  1.528238E+00  1.257402E-03
   -21.4716  4.004995E-03  1.439839E+00  1.322327E-03
   -21.3712  4.373886E-03  1.282725E+00  1.389489E-03
   -21.2709  4.561056E-03  1.205512E+00  1.458904E-03
   -21.1706  3.697081E-03  1.105711E+00  1.530588E-03
   -21.0702  2.858725E-03  8.622808E-01  1.604555E-03
   -20.9699  2.422409E-03  5.870765E-01  1.680820E-03
   -20.8696  2.143892E-03  4.114500E-01  1.759397E-03
   -20.7692  1.878144E-03  3.045154E-01  1.840299E-03
   -20.6689  1.709416E-03  2.349730E-01  1.923539E-03
   -20.5686  1.604533E-03  1.871081E-01  2.009129E-03
   -20.4682  1.532391E-03  1.528559E-01  2.097081E-03
   -20.3679  1.480068E-03  1.275974E-01  2.187407E-03
   -20.2676  1.441613E-03  1.084986E-01  2.280118E-03
   -20.1672  1.413819E-03  9.375119E-02  2.375224E-03
   -20.0669  1.394889E-03  8.216364E-02  2.472735E-03
   -19.9666  1.383789E-03  7.293048E-02  2.572661E-03
   -19.8662  1.379990E-03  6.549418E-02  2.675012E-03
   -19.7659  1.383400E-03  5.946298E-02  2.779795E-03
   -19.6656  1.394277E-03  5.455876E-02  2.887021E-03
   -19.5652  1.413273E-03  5.058443E-02  2.996696E-03
   -19.4649  1.441537E-03  4.740518E-02  3.108830E-03
   -19.3645  1.480862E-03  4.493850E-02  3.223428E-03
   -19.2642  1.533956E-03  4.314973E-02  3.340499E-03
   -19.1639  1.604882E-03  4.205858E-02  3.460049E-03
   -19.0635  1.699749E-03  4.175538E-02  3.582084E-03
   -18.9632  1.827727E-03  4.243350E-02  3.706611E-03
   -18.8629  2.002339E-03  4.443724E-02  3.833635E-03
   -18.7625  2.242842E-03  4.828845E-02  3.963162E-03
   -18.6622  2.573495E-03  5.447359E-02  4.095197E-03
   -18.5619  3.017485E-03  6.264155E-02  4.229744E-03
   -18.4615  3.591986E-03  7.147300E-02  4.366810E-03
   -18.3612  4.354998E-03  8.112467E-02  4.506397E-03
   -18.2609  5.471387E-03  9.311018E-02  4.648509E-03
   -18.1605  6.767651E-03  1.103005E-01  4.793150E-03
   -18.0602  7.360839E-03  1.299995E-01  4.940325E-03
   -17.9599  7.246567E-03  1.462335E-01  5.090034E-03
   -17.8595  6.778663E-03  1.518918E-01  5.242283E-03
   -17.7592  6.285073E-03  1.445330E-01  5.397073E-03
   -17.6589  6.091930E-03  1.465799E-01  5.554407E-03
   -17.5585  5.827782E-03  1.641218E-01  5.714286E-03
   -17.4582  5.671551E-03  1.866199E-01  5.876713E-03
   -17.3579  6.207782E-03  2.127480E-01  6.041689E-03
   -17.2575  7.412425E-03  2.396876E-01  6.209215E-03
   -17.1572  8.289744E-03  2.409482E-01  6.379293E-03
   -17.0569  8.295421E-03  2.081884E-01  6.551924E-03
   -16.9565  8.156932E-03  1.581480E-01  6.727108E-03
   -16.8562  8.529014E-03  1.211877E-01  6.904845E-03
   -16.7559  9.571394E-03  1.027268E-01  7.085136E-03
   -16.6555  1.159827E-02  9.449279E-02  7.267980E-03
   -16.5552  1.469304E-02  8.877713E-02  7.453378E-03
   -16.4548  1.872898E-02  8.495435E-02  7.641329E-03
   -16.3545  2.456401E-02  8.631814E-02  7.831832E-03
   -16.2542  3.357364E-02  9.497659E-02  8.024885E-03
   -16.1538  4.536880E-02  1.129121E-01  8.220489E-03
   -16.0535  5.403981E-02  1.434270E-01  8.418641E-03
   -15.9532  5.240076E-02  1.908980E-01  8.619341E-03
   -15.8528  4.485387E-02  2.559055E-01  8.822585E-03
   -15.7525  3.769553E-02  3.258712E-01  9.028373E-03
   -15.6522  3.038187E-02  3.871061E-01  9.236701E-03
   -15.5518  2.346712E-02  4.337690E-01  9.447568E-03
   -15.4515  1.828140E-02  4.531099E-01  9.660971E-03
   -15.3512  1.447753E-02  4.520835E-01  9.876907E-03
   -15.2508  1.140836E-02  4.013447E-01  1.009537E-02
   -15.1505  9.299724E-03  2.932367E-01  1.031637E-02
   -15.0502  8.039797E-03  1.984009E-01  1.053988E-02
   -14.9498  7.296829E-03  1.386782E-01  1.076592E-02
   -14.8495  6.860667E-03  1.027371E-01  1.099447E-02
   -14.7492  6.622784E-03  8.028397E-02  1.122554E-02
   -14.6488  6.525990E-03  6.554799E-02  1.145911E-02
   -14.5485  6.538791E-03  5.544646E-02  1.169518E-02
   -14.4482  6.643603E-03  4.827806E-02  1.193376E-02
   -14.3478  6.831095E-03  4.305676E-02  1.217483E-02
   -14.2475  7.097295E-03  3.918591E-02  1.241838E-02
   -14.1472  7.442098E-03  3.628897E-02  1.266443E-02
   -14.0468  7.868295E-03  3.412123E-02  1.291295E-02
   -13.9465  8.381111E-03  3.251894E-02  1.316394E-02
   -13.8462  8.987955E-03  3.137167E-02  1.341740E-02
   -13.7458  9.698035E-03  3.060431E-02  1.367333E-02
   -13.6455  1.052229E-02  3.016650E-02  1.393171E-02
   -13.5452  1.147275E-02  3.002634E-02  1.419254E-02
   -13.4448  1.256218E-02  3.016568E-02  1.445581E-02
   -13.3445  1.380262E-02  3.057758E-02  1.472152E-02
   -13.2441  1.520395E-02  3.126408E-02  1.498966E-02
   -13.1438  1.677095E-02  3.223486E-02  1.526022E-02
   -13.0435  1.849933E-02  3.350534E-02  1.553319E-02
   -12.9431  2.037061E-02  3.509443E-02  1.580858E-02
   -12.8428  2.234570E-02  3.702184E-02  1.608637E-02
   -12.7425  2.435829E-02  3.930306E-02  1.636655E-02
   -12.6421  2.631139E-02  4.194542E-02  1.664912E-02
   -12.5418  2.807917E-02  4.494235E-02  1.693406E-02
   -12.4415  2.951879E-02  4.827151E-02  1.722137E-02
   -12.3411  3.049340E-02  5.189600E-02  1.751105E-02
   -12.2408  3.090242E-02  5.576946E-02  1.780308E-02
   -12.1405  3.070874E-02  5.984391E-02  1.809745E-02
   -12.0401  2.995103E-02  6.406749E-02  1.839416E-02
   -11.9398  2.873447E-02  6.836999E-02  1.869320E-02
   -11.8395  2.720394E-02  7.262747E-02  1.899455E-02
   -11.7391  2.551317E-02  7.661929E-02  1.929821E-02
   -11.6388  2.379768E-02  8.000537E-02  1.960417E-02
   -11.5385  2.216152E-02  8.235749E-02  1.991242E-02
   -11.4381  2.067457E-02  8.327271E-02  2.022295E-02
   -11.3378  1.937609E-02  8.253459E-02  2.053575E-02
   -11.2375  1.828292E-02  8.022549E-02  2.085081E-02
   -11.1371  1.739670E-02  7.670820E-02  2.116811E-02
   -11.0368  1.671021E-02  7.248871E-02  2.148766E-02
   -10.9365  1.621202E-02  6.805666E-02  2.180943E-02
   -10.8361  1.588973E-02  6.378558E-02  2.213342E-02
   -10.7358  1.573186E-02  5.990887E-02  2.245962E-02
   -10.6355  1.572929E-02  5.654339E-02  2.278801E-02
   -10.5351  1.587585E-02  5.372714E-02  2.311859E-02
   -10.4348  1.616864E-02  5.145245E-02  2.345133E-02
   -10.3344  1.660847E-02  4.969025E-02  2.378624E-02
   -10.2341  1.719951E-02  4.840421E-02  2.412330E-02
   -10.1338  1.794966E-02  4.755884E-02  2.446250E-02
   -10.0334  1.887011E-02  4.712330E-02  2.480382E-02
    -9.9331  1.997473E-02  4.707230E-02  2.514726E-02
    -9.8328  2.127994E-02  4.738675E-02  2.549279E-02
    -9.7324  2.280271E-02  4.805236E-02  2.584042E-02
    -9.6321  2.455827E-02  4.905795E-02  2.619012E-02
    -9.5318  2.655646E-02  5.039360E-02  2.654188E-02
    -9.4314  2.879620E-02  5.204739E-02  2.689570E-02
    -9.3311  3.125836E-02  5.400132E-02  2.725155E-02
    -9.2308  3.389840E-02  5.622738E-02  2.760942E-02
    -9.1304  3.663896E-02  5.868190E-02  2.796931E-02
    -9.0301  3.936874E-02  6.130393E-02  2.833119E-02
    -8.9298  4.194689E-02  6.401725E-02  2.869505E-02
    -8.8294  4.421381E-02  6.673753E-02  2.906089E-02
    -8.7291  4.600679E-02  6.938815E-02  2.942868E-02
    -8.6288  4.717331E-02  7.191708E-02  2.979841E-02
    -8.5284  4.758509E-02  7.430997E-02  3.017007E-02
    -8.4281  4.715486E-02  7.659247E-02  3.054364E-02
    -8.3278  4.586280E-02  7.882124E-02  3.091910E-02
    -8.2274  4.378094E-02  8.106846E-02  3.129645E-02
    -8.1271  4.107646E-02  8.340492E-02  3.167567E-02
    -8.0268  3.798201E-02  8.589160E-02  3.205674E-02
    -7.9264  3.474186E-02  8.857854E-02  3.243965E-02
    -7.8261  3.156249E-02  9.150887E-02  3.282439E-02
    -7.7258  2.858540E-02  9.472278E-02  3.321093E-02
    -7.6254  2.588657E-02  9.826201E-02  3.359926E-02
    -7.5251  2.349102E-02  1.021691E-01  3.398937E-02
    -7.4247  2.139011E-02  1.064855E-01  3.438123E-02
    -7.3244  1.955837E-02  1.112449E-01  3.477485E-02
    -7.2241  1.796393E-02  1.164604E-01  3.517019E-02
    -7.1237  1.657617E-02  1.221075E-01  3.556724E-02
    -7.0234  1.537011E-02  1.281050E-01  3.596598E-02
    -6.9231  1.432891E-02  1.342968E-01  3.636641E-02
    -6.8227  1.344548E-02  1.404431E-01  3.676850E-02
    -6.7224  1.272197E-02  1.462349E-01  3.717223E-02
    -6.6221  1.216770E-02  1.513310E-01  3.757759E-02
    -6.5217  1.179466E-02  1.554183E-01  3.798456E-02
    -6.4214  1.161019E-02  1.582796E-01  3.839313E-02
    -6.3211  1.160866E-02  1.598504E-01  3.880327E-02
    -6.2207  1.176489E-02  1.602556E-01  3.921497E-02
    -6.1204  1.203394E-02  1.597993E-01  3.962821E-02
    -6.0201  1.235864E-02  1.588974E-01  4.004298E-02
    -5.9197  1.268084E-02  1.579560E-01  4.045925E-02
    -5.8194  1.295082E-02  1.572440E-01  4.087701E-02
    -5.7191  1.313159E-02  1.568156E-01  4.129624E-02
    -5.6187  1.319924E-02  1.565140E-01  4.171692E-02
    -5.5184  1.314182E-02  1.560432E-01  4.213904E-02
    -5.4181  1.295800E-02  1.550763E-01  4.256257E-02
    -5.3177  1.265585E-02  1.533560E-01  4.298749E-02
    -5.2174  1.225100E-02  1.507620E-01  4.341380E-02
    -5.1171  1.176449E-02  1.473262E-01  4.384146E-02
    -5.0167  1.122022E-02  1.432094E-01  4.427046E-02
    -4.9164  1.064207E-02  1.386448E-01  4.470078E-02
    -4.8161  1.005223E-02  1.338796E-01  4.513241E-02
    -4.7157  9.469701E-03  1.291282E-01  4.556532E-02
    -4.6154  8.909728E-03  1.245437E-01  4.599940E-02
    -4.5151  8.383878E-03  1.202145E-01  4.643481E-02
    -4.4147  7.900105E-03  1.161724E-01  4.687144E-02
    -4.3144  7.463114E-03  1.124075E-01  4.730929E-02
    -4.2140  7.074977E-03  1.088850E-01  4.774831E-02
    -4.1137  6.735671E-03  1.055596E-01  4.818850E-02
    -4.0134  6.443643E-03  1.023850E-01  4.862983E-02
    -3.9130  6.196311E-03  9.932144E-02  4.907229E-02
    -3.8127  5.990494E-03  9.633827E-02  4.951585E-02
    -3.7124  5.822741E-03  9.341530E-02  4.996049E-02
    -3.6120  5.689487E-03  9.054081E-02  5.040620E-02
    -3.5117  5.587272E-03  8.771078E-02  5.085295E-02
    -3.4114  5.512786E-03  8.492730E-02  5.130072E-02
    -3.3110  5.462963E-03  8.219569E-02  5.174950E-02
    -3.2107  5.434946E-03  7.952372E-02  5.219925E-02
    -3.1104  5.426184E-03  7.692108E-02  5.264996E-02
    -3.0100  5.434295E-03  7.439720E-02  5.310161E-02
    -2.9097  5.457167E-03  7.196137E-02  5.355418E-02
    -2.8094  5.492815E-03  6.962132E-02  5.400765E-02
    -2.7090  5.539408E-03  6.738410E-02  5.446199E-02
    -2.6087  5.595191E-03  6.525451E-02  5.491718E-02
    -2.5084  5.658492E-03  6.323627E-02  5.537321E-02
    -2.4080  5.727650E-03  6.133159E-02  5.583005E-02
    -2.3077  5.801030E-03  5.954164E-02  5.628767E-02
    -2.2074  5.877029E-03  5.786629E-02  5.674607E-02
    -2.1070  5.954068E-03  5.630500E-02  5.720520E-02
    -2.0067  6.030636E-03  5.485651E-02  5.766507E-02
    -1.9064  6.105286E-03  5.351902E-02  5.812563E-02
    -1.8060  6.176693E-03  5.229069E-02  5.858688E-02
    -1.7057  6.243675E-03  5.116921E-02  5.904878E-02
    -1.6054  6.305233E-03  5.015227E-02  5.951132E-02
    -1.5050  6.360589E-03  4.923731E-02  5.997448E-02
    -1.4047  6.409190E-03  4.842172E-02  6.043822E-02
    -1.3043  6.450767E-03  4.770274E-02  6.090254E-02
    -1.2040  6.485320E-03  4.707751E-02  6.136740E-02
    -1.1037  6.513119E-03  4.654255E-02  6.183278E-02
    -1.0033  6.534695E-03  4.609418E-02  6.229867E-02
    -0.9030  6.550826E-03  4.572812E-02  6.276504E-02
    -0.8027  6.562461E-03  4.543943E-02  6.323187E-02
    -0.7023  6.570695E-03  4.522226E-02  6.369913E-02
    -0.6020  6.576721E-03  4.507018E-02  6.416680E-02
    -0.5017  6.581736E-03  4.497575E-02  6.463486E-02
    -0.4013  6.586922E-03  4.493079E-02  6.510329E-02
    -0.3010  6.593371E-03  4.492665E-02  6.557207E-02
    -0.2007  6.602058E-03  4.495427E-02  6.604116E-02
    -0.1003  6.613820E-03  4.500467E-02  6.651055E-02
     0.0000  6.629324E-03  4.506929E-02  6.698022E-02
