#  Fermi level (eV): -11.666
#  Charge transfer :   0.506
#    Electron counts for each orbital momentum:
#       0      0.314
#       1      6.341
#       2      1.450
#       3      1.388
#  Number of atoms in cluster:   9
#  Lorentzian broadening with HWHH     0.1000 eV
# -----------------------------------------------------------------------
#      e        sDOS           pDOS          dDOS          fDOS    @#
  -200.0000  1.443954E-05           NaN           NaN           NaN
  -199.3311  1.434718E-05           NaN           NaN           NaN
  -198.6622  1.425826E-05           NaN           NaN           NaN
  -197.9933  1.417266E-05           NaN           NaN           NaN
  -197.3244  1.409035E-05           NaN           NaN           NaN
  -196.6555  1.401124E-05           NaN           NaN           NaN
  -195.9866  1.393527E-05           NaN           NaN           NaN
  -195.3177  1.386227E-05           NaN           NaN           NaN
  -194.6488  1.379229E-05           NaN           NaN           NaN
  -193.9799  1.372524E-05           NaN           NaN           NaN
  -193.3110  1.366105E-05           NaN           NaN           NaN
  -192.6421  1.359964E-05           NaN           NaN           NaN
  -191.9732  1.354099E-05           NaN           NaN           NaN
  -191.3043  1.348502E-05           NaN           NaN           NaN
  -190.6355  1.343169E-05           NaN           NaN           NaN
  -189.9666  1.338091E-05           NaN           NaN           NaN
  -189.2977  1.333271E-05           NaN           NaN           NaN
  -188.6288  1.328699E-05           NaN           NaN           NaN
  -187.9599  1.324373E-05           NaN           NaN           NaN
  -187.2910  1.320288E-05           NaN           NaN           NaN
  -186.6221  1.316440E-05           NaN           NaN           NaN
  -185.9532  1.313195E-05           NaN           NaN           NaN
  -185.2843  1.309812E-05           NaN           NaN           NaN
  -184.6154  1.306657E-05           NaN           NaN           NaN
  -183.9465  1.303724E-05           NaN           NaN           NaN
  -183.2776  1.301014E-05           NaN           NaN           NaN
  -182.6087  1.298520E-05           NaN           NaN           NaN
  -181.9398  1.296241E-05           NaN           NaN           NaN
  -181.2709  1.294174E-05           NaN           NaN           NaN
  -180.6020  1.292319E-05           NaN           NaN           NaN
  -179.9331  1.290671E-05           NaN           NaN           NaN
  -179.2642  1.289226E-05           NaN           NaN           NaN
  -178.5953  1.287987E-05           NaN           NaN           NaN
  -177.9264  1.286948E-05           NaN           NaN           NaN
  -177.2575  1.286110E-05           NaN           NaN           NaN
  -176.5886  1.285466E-05           NaN           NaN           NaN
  -175.9197  1.285024E-05           NaN           NaN           NaN
  -175.2508  1.284776E-05           NaN           NaN           NaN
  -174.5819  1.284721E-05           NaN           NaN           NaN
  -173.9130  1.284861E-05           NaN           NaN           NaN
  -173.2441  1.285195E-05           NaN           NaN           NaN
  -172.5753  1.285718E-05           NaN           NaN           NaN
  -171.9064  1.286430E-05           NaN           NaN           NaN
  -171.2375  1.287335E-05           NaN           NaN           NaN
  -170.5686  1.288472E-05  1.105963E-04  1.353732E-04  4.652889E-05
  -169.8997  1.289754E-05  1.081728E-04  1.382605E-04  4.683009E-05
  -169.2308  1.291227E-05  1.058591E-04  1.412540E-04  4.713482E-05
  -168.5619  1.292886E-05  1.036495E-04  1.443584E-04  4.744346E-05
  -167.8930  1.294732E-05  1.015384E-04  1.475797E-04  4.775536E-05
  -167.2241  1.296769E-05  9.952069E-05  1.509243E-04  4.807080E-05
  -166.5552  1.298993E-05  9.759142E-05  1.543983E-04  4.838974E-05
  -165.8863  1.301408E-05  9.574627E-05  1.580089E-04  4.871225E-05
  -165.2174  1.304010E-05  9.398112E-05  1.617635E-04  4.903833E-05
  -164.5485  1.306802E-05  9.229165E-05  1.656700E-04  4.936812E-05
  -163.8796  1.309787E-05  9.067434E-05  1.697371E-04  4.970169E-05
  -163.2107  1.312961E-05  8.912579E-05  1.739741E-04  5.003897E-05
  -162.5418  1.316326E-05  8.764273E-05  1.783905E-04  5.038012E-05
  -161.8729  1.319878E-05  8.622208E-05  1.829967E-04  5.072515E-05
  -161.2040  1.323632E-05  8.486114E-05  1.878045E-04  5.107423E-05
  -160.5351  1.327577E-05  8.355686E-05  1.928253E-04  5.142725E-05
  -159.8662  1.331718E-05  8.230719E-05  1.980734E-04  5.178446E-05
  -159.1973  1.336054E-05  8.110948E-05  2.035619E-04  5.214514E-05
  -158.5284  1.340590E-05  7.996162E-05  2.093070E-04  5.251084E-05
  -157.8595  1.345324E-05  7.886140E-05  2.153246E-04  5.288067E-05
  -157.1906  1.350264E-05  7.780698E-05  2.216330E-04  5.325504E-05
  -156.5217  1.355405E-05  7.679635E-05  2.282514E-04  5.363375E-05
  -155.8528  1.360751E-05  7.582782E-05  2.352008E-04  5.401697E-05
  -155.1839  1.366300E-05  7.489989E-05  2.425043E-04  5.440485E-05
  -154.5151  1.372065E-05  7.401077E-05  2.501866E-04  5.479738E-05
  -153.8462  1.378040E-05  7.315894E-05  2.582748E-04  5.519468E-05
  -153.1773  1.384231E-05  7.234308E-05  2.667987E-04  5.559695E-05
  -152.5084  1.390641E-05  7.156189E-05  2.757906E-04  5.600410E-05
  -151.8395  1.397267E-05  7.081405E-05  2.852860E-04  5.641613E-05
  -151.1706  1.404116E-05  7.009852E-05  2.953235E-04  5.683344E-05
  -150.5017  1.411191E-05  6.941404E-05  3.059467E-04  5.725584E-05
  -149.8328  1.418486E-05  6.875963E-05  3.172019E-04  5.768348E-05
  -149.1639  1.426023E-05  6.813429E-05  3.291413E-04  5.811671E-05
  -148.4950  1.433796E-05  6.753706E-05  3.418225E-04  5.855529E-05
  -147.8261  1.441807E-05  6.696704E-05  3.553084E-04  5.899939E-05
  -147.1572  1.450064E-05  6.642341E-05  3.696683E-04  5.944922E-05
  -146.4883  1.458567E-05  6.590536E-05  3.849836E-04  5.990477E-05
  -145.8194  1.467318E-05  6.541198E-05  4.013402E-04  6.036613E-05
  -145.1505  1.476329E-05  6.494279E-05  4.188357E-04  6.083356E-05
  -144.4816  1.485597E-05  6.449698E-05  4.375796E-04  6.130712E-05
  -143.8127  1.495130E-05  6.407393E-05  4.576948E-04  6.178679E-05
  -143.1438  1.504933E-05  6.367305E-05  4.793193E-04  6.227279E-05
  -142.4749  1.515011E-05  6.329376E-05  5.026102E-04  6.276526E-05
  -141.8060  1.525370E-05  6.293551E-05  5.277443E-04  6.326426E-05
  -141.1371  1.536012E-05  6.259775E-05  5.549229E-04  6.376943E-05
  -140.4682  1.546949E-05  6.228011E-05  5.843759E-04  6.428198E-05
  -139.7993  1.558181E-05  6.198197E-05  6.163662E-04  6.480034E-05
  -139.1304  1.569716E-05  6.170307E-05  6.511958E-04  6.532677E-05
  -138.4615  1.581563E-05  6.144286E-05  6.892151E-04  6.586040E-05
  -137.7926  1.593726E-05  6.120108E-05  7.308246E-04  6.640138E-05
  -137.1237  1.606213E-05  6.097729E-05  7.764951E-04  6.694990E-05
  -136.4548  1.619029E-05  6.077110E-05  8.267767E-04  6.750592E-05
  -135.7860  1.632187E-05  6.058223E-05  8.823142E-04  6.806972E-05
  -135.1171  1.645694E-05  6.041056E-05  9.438705E-04  6.864164E-05
  -134.4482  1.659553E-05  6.025557E-05  1.012351E-03  6.922140E-05
  -133.7793  1.673776E-05  6.011715E-05  1.088841E-03  6.980938E-05
  -133.1104  1.688374E-05  5.999512E-05  1.174642E-03  7.040600E-05
  -132.4415  1.703352E-05  5.988906E-05  1.271335E-03  7.101099E-05
  -131.7726  1.718725E-05  5.979899E-05  1.380851E-03  7.162495E-05
  -131.1037  1.734498E-05  5.972457E-05  1.505569E-03  7.224769E-05
  -130.4348  1.750679E-05  5.966569E-05  1.648446E-03  7.287818E-05
  -129.7659  1.767288E-05  5.962219E-05  1.813194E-03  7.351930E-05
  -129.0970  1.784332E-05  5.959401E-05  2.004525E-03  7.417001E-05
  -128.4281  1.801825E-05  5.958090E-05  2.228493E-03  7.483034E-05
  -127.7592  1.819775E-05  5.958287E-05  2.492980E-03  7.550057E-05
  -127.0903  1.838198E-05  5.959973E-05  2.808389E-03  7.618087E-05
  -126.4214  1.857106E-05  5.963146E-05  3.188716E-03  7.687192E-05
  -125.7525  1.876516E-05  5.967807E-05  3.653096E-03  7.757326E-05
  -125.0836  1.896438E-05  5.973932E-05  4.228263E-03  7.828519E-05
  -124.4147  1.916888E-05  5.981535E-05  4.952516E-03  7.900805E-05
  -123.7458  1.937888E-05  5.990619E-05  5.882239E-03  7.974234E-05
  -123.0769  1.959443E-05  6.001169E-05  7.103240E-03  8.048801E-05
  -122.4080  1.981584E-05  6.013199E-05  8.751270E-03  8.124547E-05
  -121.7391  2.004299E-05  6.026695E-05  1.105147E-02  8.201481E-05
  -121.0702  2.027655E-05  6.041681E-05  1.439952E-02  8.279653E-05
  -120.4013  2.051646E-05  6.058143E-05  1.954388E-02  8.359065E-05
  -119.7324  2.076293E-05  6.076103E-05  2.804328E-02  8.439774E-05
  -119.0635  2.101622E-05  6.095567E-05  4.360175E-02  8.521793E-05
  -118.3946  2.127649E-05  6.116486E-05  7.690192E-02  8.605085E-05
  -117.7258  2.154400E-05  6.138975E-05  1.702750E-01  8.689801E-05
  -117.0569  2.181905E-05  6.162999E-05  6.458555E-01  8.775936E-05
  -116.3880  2.210185E-05  6.188576E-05  2.981403E+01  8.863512E-05
  -115.7191  2.239257E-05  6.215707E-05  7.520583E-01  8.952550E-05
  -115.0502  2.269172E-05  6.244431E-05  1.839707E-01  9.043139E-05
  -114.3813  2.299945E-05  6.274746E-05  8.098581E-02  9.135186E-05
  -113.7124  2.331612E-05  6.306689E-05  4.533089E-02  9.228865E-05
  -113.0435  2.364203E-05  6.340275E-05  2.893233E-02  9.324151E-05
  -112.3746  2.397756E-05  6.375525E-05  2.006155E-02  9.421095E-05
  -111.7057  2.432301E-05  6.412459E-05  1.472865E-02  9.519723E-05
  -111.0368  2.467882E-05  6.451123E-05  1.127513E-02  9.620111E-05
  -110.3679  2.504537E-05  6.491545E-05  8.911563E-03  9.722274E-05
  -109.6990  2.542304E-05  6.533729E-05  7.223331E-03  9.826260E-05
  -109.0301  2.581222E-05  6.577729E-05  5.975766E-03  9.932130E-05
  -108.3612  2.621355E-05  6.623571E-05  5.027895E-03  1.003990E-04
  -107.6923  2.662746E-05  6.671303E-05  4.290932E-03  1.014966E-04
  -107.0234  2.705446E-05  6.720956E-05  3.706688E-03  1.026144E-04
  -106.3545  2.749506E-05  6.772577E-05  3.235739E-03  1.037528E-04
  -105.6856  2.794983E-05  6.826212E-05  2.850615E-03  1.049104E-04
  -105.0167  2.841938E-05  6.881902E-05  2.531688E-03  1.060923E-04
  -104.3478  2.890429E-05  6.939679E-05  2.264640E-03  1.072964E-04
  -103.6789  2.940542E-05  6.999639E-05  2.038826E-03  1.085235E-04
  -103.0100  2.992336E-05  7.061792E-05  1.846195E-03  1.097742E-04
  -102.3411  3.045887E-05  7.126228E-05  1.680573E-03  1.110491E-04
  -101.6722  3.101264E-05  7.193000E-05  1.537157E-03  1.123489E-04
  -101.0033  3.158577E-05  7.262167E-05  1.412167E-03  1.136744E-04
  -100.3344  3.217905E-05  7.333802E-05  1.302594E-03  1.150263E-04
   -99.6656  3.279343E-05  7.407966E-05  1.206022E-03  1.164052E-04
   -98.9967  3.342991E-05  7.484721E-05  1.120488E-03  1.178121E-04
   -98.3278  3.408956E-05  7.564181E-05  1.044388E-03  1.192475E-04
   -97.6589  3.477359E-05  7.646417E-05  9.764001E-04  1.207125E-04
   -96.9900  3.548315E-05  7.731512E-05  9.154254E-04  1.222077E-04
   -96.3211  3.621958E-05  7.819558E-05  8.605459E-04  1.237342E-04
   -95.6522  3.698430E-05  7.910666E-05  8.109899E-04  1.252931E-04
   -94.9833  3.777873E-05  8.004898E-05  7.661038E-04  1.268848E-04
   -94.3144  3.860448E-05  8.102400E-05  7.253320E-04  1.285104E-04
   -93.6455  3.946325E-05  8.203279E-05  6.882012E-04  1.301708E-04
   -92.9766  4.035687E-05  8.307648E-05  6.543008E-04  1.318679E-04
   -92.3077  4.128724E-05  8.415634E-05  6.232804E-04  1.336021E-04
   -91.6388  4.225648E-05  8.527372E-05  5.948352E-04  1.353750E-04
   -90.9699  4.326681E-05  8.643005E-05  5.686999E-04  1.371877E-04
   -90.3010  4.432064E-05  8.762678E-05  5.446432E-04  1.390412E-04
   -89.6321  4.542054E-05  8.886544E-05  5.224623E-04  1.409369E-04
   -88.9632  4.656934E-05  9.014783E-05  5.019790E-04  1.428763E-04
   -88.2943  4.776993E-05  9.147537E-05  4.830363E-04  1.448605E-04
   -87.6254  4.902556E-05  9.285027E-05  4.654951E-04  1.468918E-04
   -86.9565  5.033987E-05  9.427430E-05  4.492324E-04  1.489705E-04
   -86.2876  5.171663E-05  9.574965E-05  4.341385E-04  1.510990E-04
   -85.6187  5.315984E-05  9.727844E-05  4.201159E-04  1.532787E-04
   -84.9498  5.467404E-05  9.886300E-05  4.070773E-04  1.555115E-04
   -84.2809  5.626404E-05  1.005058E-04  3.949445E-04  1.577992E-04
   -83.6120  5.793503E-05  1.022090E-04  3.836473E-04  1.601434E-04
   -82.9431  5.969293E-05  1.039765E-04  3.731233E-04  1.625469E-04
   -82.2742  6.154367E-05  1.058102E-04  3.633153E-04  1.650108E-04
   -81.6054  6.349449E-05  1.077138E-04  3.541720E-04  1.675379E-04
   -80.9365  6.555271E-05  1.096904E-04  3.456473E-04  1.701303E-04
   -80.2676  6.772664E-05  1.117438E-04  3.377000E-04  1.727906E-04
   -79.5987  7.002524E-05  1.138775E-04  3.302910E-04  1.755210E-04
   -78.9298  7.245841E-05  1.160955E-04  3.233868E-04  1.783241E-04
   -78.2609  7.503729E-05  1.184024E-04  3.169555E-04  1.812019E-04
   -77.5920  7.777395E-05  1.208028E-04  3.109697E-04  1.841594E-04
   -76.9231  8.068185E-05  1.233014E-04  3.054024E-04  1.871982E-04
   -76.2542  8.377584E-05  1.259036E-04  3.002316E-04  1.903218E-04
   -75.5853  8.707266E-05  1.286149E-04  2.954344E-04  1.935344E-04
   -74.9164  9.059080E-05  1.314416E-04  2.909926E-04  1.968377E-04
   -74.2475  9.435085E-05  1.343900E-04  2.868878E-04  2.002359E-04
   -73.5786  9.837623E-05  1.374673E-04  2.831041E-04  2.037335E-04
   -72.9097  1.026929E-04  1.406807E-04  2.796272E-04  2.073351E-04
   -72.2408  1.073305E-04  1.440387E-04  2.764442E-04  2.110436E-04
   -71.5719  1.123223E-04  1.475497E-04  2.735423E-04  2.148641E-04
   -70.9030  1.177056E-04  1.512229E-04  2.709112E-04  2.188013E-04
   -70.2341  1.235238E-04  1.550691E-04  2.685413E-04  2.228610E-04
   -69.5652  1.298258E-04  1.590988E-04  2.664234E-04  2.270477E-04
   -68.8963  1.366680E-04  1.633242E-04  2.645501E-04  2.313677E-04
   -68.2274  1.441149E-04  1.677581E-04  2.629149E-04  2.358265E-04
   -67.5585  1.522413E-04  1.724146E-04  2.615117E-04  2.404309E-04
   -66.8896  1.611340E-04  1.773089E-04  2.603345E-04  2.451875E-04
   -66.2207  1.708943E-04  1.824578E-04  2.593804E-04  2.501033E-04
   -65.5518  1.816406E-04  1.878794E-04  2.586443E-04  2.551858E-04
   -64.8829  1.935123E-04  1.935934E-04  2.581243E-04  2.604433E-04
   -64.2140  2.066752E-04  1.996221E-04  2.578185E-04  2.658848E-04
   -63.5452  2.213262E-04  2.059889E-04  2.577245E-04  2.715186E-04
   -62.8763  2.377013E-04  2.127202E-04  2.578415E-04  2.773546E-04
   -62.2074  2.560859E-04  2.198447E-04  2.581697E-04  2.834033E-04
   -61.5385  2.768273E-04  2.273948E-04  2.587101E-04  2.896758E-04
   -60.8696  3.003516E-04  2.354051E-04  2.594638E-04  2.961836E-04
   -60.2007  3.271845E-04  2.439150E-04  2.604335E-04  3.029396E-04
   -59.5318  3.579845E-04  2.529680E-04  2.616214E-04  3.099574E-04
   -58.8629  3.935821E-04  2.626121E-04  2.630310E-04  3.172511E-04
   -58.1940  4.350376E-04  2.729014E-04  2.646675E-04  3.248366E-04
   -57.5251  4.837220E-04  2.838959E-04  2.665351E-04  3.327303E-04
   -56.8562  5.414359E-04  2.956637E-04  2.686419E-04  3.409503E-04
   -56.1873  6.105694E-04  3.082800E-04  2.709940E-04  3.495155E-04
   -55.5184  6.943718E-04  3.218316E-04  2.736011E-04  3.584475E-04
   -54.8495  7.973332E-04  3.364156E-04  2.764720E-04  3.677685E-04
   -54.1806  9.258047E-04  3.521420E-04  2.796181E-04  3.775026E-04
   -53.5117  1.089009E-03  3.691366E-04  2.830511E-04  3.876764E-04
   -52.8428  1.300751E-03  3.875441E-04  2.867863E-04  3.983188E-04
   -52.1739  1.582446E-03  4.075299E-04  2.908411E-04  4.094613E-04
   -51.5050  1.968786E-03  4.292837E-04  2.952297E-04  4.211365E-04
   -50.8361  2.518971E-03  4.530285E-04  2.999777E-04  4.333832E-04
   -50.1672  3.340860E-03  4.790202E-04  3.051051E-04  4.462412E-04
   -49.4983  4.648249E-03  5.075600E-04  3.106377E-04  4.597549E-04
   -48.8294  6.915469E-03  5.390055E-04  3.166081E-04  4.739748E-04
   -48.1605  1.137677E-02  5.737726E-04  3.230497E-04  4.889532E-04
   -47.4916  2.214079E-02  6.123650E-04  3.300035E-04  5.047520E-04
   -46.8227  6.052195E-02  6.553809E-04  3.375154E-04  5.214372E-04
   -46.1538  4.856148E-01  7.035450E-04  3.456348E-04  5.390830E-04
   -45.4849  5.488931E-01  7.577424E-04  3.544299E-04  5.577741E-04
   -44.8161  6.324946E-02  8.190599E-04  3.639708E-04  5.776054E-04
   -44.1472  2.274545E-02  8.888438E-04  3.743438E-04  5.986828E-04
   -43.4783  1.160750E-02  9.687864E-04  3.856584E-04  6.211299E-04
   -42.8094  7.035138E-03  1.061037E-03  3.980362E-04  6.450884E-04
   -42.1405  4.725919E-03  1.168363E-03  4.116420E-04  6.707238E-04
   -41.4716  3.401028E-03  1.294372E-03  4.266675E-04  6.982291E-04
   -40.8027  2.572358E-03  1.443867E-03  4.433568E-04  7.278381E-04
   -40.1338  2.020948E-03  1.623355E-03  4.620373E-04  7.598341E-04
   -39.4649  1.636811E-03  1.841859E-03  4.831365E-04  7.945723E-04
   -38.7960  1.359876E-03  2.112200E-03  5.072196E-04  8.325015E-04
   -38.1271  1.155251E-03  2.453212E-03  5.350882E-04  8.742214E-04
   -37.4582  1.001766E-03  2.893574E-03  5.678693E-04  9.205514E-04
   -36.7893  8.863038E-04  3.479002E-03  6.072513E-04  9.726832E-04
   -36.1204  8.009588E-04  4.286576E-03  6.558477E-04  1.032448E-03
   -35.4515  7.417455E-04  5.455924E-03  7.178862E-04  1.102901E-03
   -34.7826  7.085840E-04  7.264967E-03  8.006785E-04  1.189648E-03
   -34.1137  7.071116E-04  1.034322E-02  9.178319E-04  1.304512E-03
   -33.4448  7.548686E-04  1.641018E-02  1.097233E-03  1.477513E-03
   -32.7759  9.029092E-04  3.181023E-02  1.404081E-03  1.811969E-03
   -32.1070  1.330946E-03  9.861662E-02  2.022369E-03  2.951546E-03
   -31.4381  3.034809E-03  2.490440E+00  3.657268E-03  3.840109E-02
   -30.7692  2.713106E-02  1.949680E-01  1.127589E-02  5.444212E-03
   -30.1003  1.583637E-02  5.552136E-02  3.725568E-01  9.046374E-03
   -29.4314  2.509115E-03  4.554825E-02  1.753749E-02  3.759944E-02
   -28.7625  1.137149E-03  7.274638E-02  4.625992E-03  4.279719E-03
   -28.0936  7.351547E-04  2.338681E-01  2.539802E-03  3.254828E-03
   -27.4247  5.645526E-04  8.755121E+00  1.892332E-03  2.279113E-02
   -26.7559  4.779921E-04  3.377780E-01  1.652295E-03  3.293565E-03
   -26.0870  4.306637E-04  7.929731E-02  1.579898E-03  2.820289E-03
   -25.4181  4.056183E-04  3.514438E-02  1.599036E-03  2.908233E-03
   -24.7492  3.957955E-04  2.007457E-02  1.683773E-03  3.118951E-03
   -24.0803  3.986562E-04  1.316816E-02  1.829939E-03  3.406933E-03
   -23.4114  4.144023E-04  9.442826E-03  2.047730E-03  3.770964E-03
   -22.7425  4.458598E-04  7.224945E-03  2.364267E-03  4.225380E-03
   -22.0736  4.999022E-04  5.828503E-03  2.836993E-03  4.798518E-03
   -21.4047  5.920847E-04  4.939466E-03  3.594560E-03  5.541102E-03
   -20.7358  7.650155E-04  4.418840E-03  4.980761E-03  6.553226E-03
   -20.0669  1.282214E-03  4.326708E-03  8.268705E-03  9.125311E-03
   -19.3980  5.011316E-03  5.676292E-03  3.137611E-02  1.257922E-02
   -18.7291  1.031062E-02  7.990058E-03  2.197795E-01  2.421390E-02
   -18.0602  2.189141E-02  1.480344E-02  1.223027E-01  9.740866E-02
   -17.3913  5.928195E-02  6.123623E-02  8.596357E-01  1.522749E-01
   -16.7224  1.413971E-01  1.800059E-01  1.798718E-01  1.358602E-01
   -16.0535  5.850805E-02  1.922461E-01  1.621154E-01  2.535420E-01
   -15.3846  2.222453E-02  1.837274E-01  1.286337E-01  2.611992E-01
   -14.7157  1.192482E-02  1.124538E-01  9.222506E-02  2.292077E-01
   -14.0468  7.994180E-03  5.646671E-02  7.096918E-02  1.987056E-01
   -13.3779  6.143779E-03  3.124060E-02  6.010614E-02  2.173697E-01
   -12.7090  5.139951E-03  1.966152E-02  5.601406E-02  3.316314E-01
   -12.0401  4.541525E-03  1.398187E-02  5.781052E-02  8.449424E-01
   -11.3712  4.169491E-03  2.815638E-02  6.721660E-02  9.977355E+00
   -10.7023  3.949412E-03  2.173064E-02  9.022475E-02  4.680925E+00
   -10.0334  3.856170E-03  1.248095E-02  1.432994E-01  6.808918E-01
    -9.3645  3.893034E-03  1.074634E-02  2.718369E-01  2.458222E-01
    -8.6957  4.083779E-03  1.057878E-02  5.678449E-01  1.365495E-01
    -8.0268  4.471221E-03  1.129623E-02  8.674185E-01  9.358160E-02
    -7.3579  5.119433E-03  1.272223E-02  7.029317E-01  7.310231E-02
    -6.6890  6.118640E-03  1.478388E-02  4.843129E-01  6.245413E-02
    -6.0201  7.592496E-03  1.742903E-02  3.821763E-01  5.682170E-02
    -5.3512  9.706760E-03  2.060206E-02  3.724190E-01  5.402288E-02
    -4.6823  1.267729E-02  2.423784E-02  4.875801E-01  5.294809E-02
    -4.0134  1.677261E-02  2.826367E-02  1.024397E+00  5.300112E-02
    -3.3445  2.229815E-02  3.260433E-02  2.959966E+00  5.387936E-02
    -2.6756  2.954190E-02  3.718822E-02  1.211240E+00  5.549064E-02
    -2.0067  3.865157E-02  4.195216E-02  4.550875E-01  5.793769E-02
    -1.3378  4.943269E-02  4.684553E-02  2.618521E-01  6.154807E-02
    -0.6689  6.112647E-02  5.183184E-02  1.892746E-01  6.694348E-02
    -0.0000  7.235684E-02  5.688919E-02  1.549816E-01  7.513610E-02
