#  Fermi level (eV): -12.017
#  Charge transfer :   0.047
#    Electron counts for each orbital momentum:
#       0      0.463
#       1      0.657
#       2      9.834
#  Number of atoms in cluster:  57
#  Lorentzian broadening with HWHH     0.1000 eV
# -----------------------------------------------------------------------
#      e        sDOS           pDOS          dDOS          fDOS    @#
   -20.0000  1.879615E-01  3.651505E-01  1.748408E-01
   -19.8997  1.560526E-01  3.220238E-01  2.432826E-01
   -19.7993  1.103064E-01  2.250155E-01  2.930442E-01
   -19.6990  7.781415E-02  1.191380E-01  3.099095E-01
   -19.5987  5.777067E-02  6.836324E-02  2.915270E-01
   -19.4983  4.531167E-02  4.907132E-02  2.488749E-01
   -19.3980  3.727772E-02  4.408648E-02  2.082828E-01
   -19.2977  3.196804E-02  4.615150E-02  1.819907E-01
   -19.1973  2.853967E-02  5.123899E-02  1.702261E-01
   -19.0970  2.670457E-02  5.589136E-02  1.651816E-01
   -18.9967  2.668517E-02  5.754249E-02  1.583678E-01
   -18.8963  2.939632E-02  5.593839E-02  1.511661E-01
   -18.7960  3.676074E-02  5.297841E-02  1.477266E-01
   -18.6957  5.095400E-02  5.114571E-02  1.498247E-01
   -18.5953  6.803843E-02  5.269825E-02  1.587693E-01
   -18.4950  7.252440E-02  6.027377E-02  1.780054E-01
   -18.3946  6.137415E-02  7.878890E-02  2.166260E-01
   -18.2943  4.720362E-02  1.195774E-01  2.975375E-01
   -18.1940  3.603234E-02  2.051079E-01  4.809712E-01
   -18.0936  2.806292E-02  3.200243E-01  9.098020E-01
   -17.9933  2.238671E-02  3.030451E-01  1.534196E+00
   -17.8930  1.825190E-02  2.204088E-01  1.320458E+00
   -17.7926  1.516298E-02  1.750105E-01  8.113018E-01
   -17.6923  1.280270E-02  1.245767E-01  4.954708E-01
   -17.5920  1.096475E-02  8.811119E-02  3.409481E-01
   -17.4916  9.510577E-03  8.634501E-02  2.710850E-01
   -17.3913  8.344690E-03  9.821098E-02  2.539560E-01
   -17.2910  7.399141E-03  7.423396E-02  2.621447E-01
   -17.1906  6.624907E-03  4.865619E-02  2.276522E-01
   -17.0903  5.985700E-03  3.440065E-02  1.845850E-01
   -16.9900  5.454206E-03  2.631639E-02  1.568562E-01
   -16.8896  5.009887E-03  2.127451E-02  1.395301E-01
   -16.7893  4.636783E-03  1.785750E-02  1.282373E-01
   -16.6890  4.322619E-03  1.538671E-02  1.207623E-01
   -16.5886  4.057688E-03  1.350923E-02  1.159736E-01
   -16.4883  3.834505E-03  1.202932E-02  1.132658E-01
   -16.3880  3.647089E-03  1.083223E-02  1.123094E-01
   -16.2876  3.490749E-03  9.848239E-03  1.129441E-01
   -16.1873  3.361746E-03  9.032385E-03  1.151255E-01
   -16.0870  3.257224E-03  8.354363E-03  1.189062E-01
   -15.9866  3.174961E-03  7.792438E-03  1.244388E-01
   -15.8863  3.113340E-03  7.330061E-03  1.319873E-01
   -15.7860  3.071125E-03  6.954269E-03  1.419700E-01
   -15.6856  3.047534E-03  6.654752E-03  1.550175E-01
   -15.5853  3.042347E-03  6.423336E-03  1.720955E-01
   -15.4849  3.055467E-03  6.253353E-03  1.947105E-01
   -15.3846  3.087270E-03  6.139912E-03  2.253097E-01
   -15.2843  3.138473E-03  6.079089E-03  2.680816E-01
   -15.1839  3.210090E-03  6.068237E-03  3.306712E-01
   -15.0836  3.303565E-03  6.105237E-03  4.282052E-01
   -14.9833  3.420614E-03  6.188737E-03  5.934410E-01
   -14.8829  3.563388E-03  6.317203E-03  9.033075E-01
   -14.7826  3.734290E-03  6.488373E-03  1.529578E+00
   -14.6823  3.936167E-03  6.698269E-03  2.551582E+00
   -14.5819  4.171949E-03  6.938768E-03  2.790701E+00
   -14.4816  4.445135E-03  7.194023E-03  2.062903E+00
   -14.3813  4.759290E-03  7.436564E-03  1.640990E+00
   -14.2809  5.119219E-03  7.628941E-03  1.619214E+00
   -14.1806  5.532132E-03  7.797245E-03  1.946302E+00
   -14.0803  6.012076E-03  8.376895E-03  2.728655E+00
   -13.9799  6.590736E-03  1.007674E-02  4.169034E+00
   -13.8796  7.343391E-03  1.185193E-02  6.846020E+00
   -13.7793  8.454616E-03  1.283775E-02  8.181715E+00
   -13.6789  1.038940E-02  1.323980E-02  5.528016E+00
   -13.5786  1.438810E-02  1.330677E-02  4.787985E+00
   -13.4783  2.402833E-02  1.363118E-02  3.565609E+00
   -13.3779  4.960388E-02  1.635833E-02  3.218697E+00
   -13.2776  1.003705E-01  2.598116E-02  3.145148E+00
   -13.1773  1.050470E-01  4.095407E-02  2.113552E+00
   -13.0769  6.742893E-02  4.842773E-02  1.639820E+00
   -12.9766  4.370103E-02  4.694786E-02  1.551931E+00
   -12.8763  3.115506E-02  4.247148E-02  1.631643E+00
   -12.7759  2.395468E-02  3.801776E-02  1.778341E+00
   -12.6756  1.942799E-02  3.468067E-02  1.820435E+00
   -12.5753  1.636653E-02  3.292567E-02  1.770371E+00
   -12.4749  1.414244E-02  3.154949E-02  1.868136E+00
   -12.3746  1.236644E-02  2.830696E-02  1.962028E+00
   -12.2742  1.086202E-02  2.480198E-02  1.881497E+00
   -12.1739  9.659559E-03  2.216365E-02  1.621337E+00
   -12.0736  8.761344E-03  1.993800E-02  1.281426E+00
   -11.9732  8.094463E-03  1.751322E-02  9.558259E-01
   -11.8729  7.591303E-03  1.492172E-02  6.944721E-01
   -11.7726  7.208700E-03  1.266575E-02  5.070439E-01
   -11.6722  6.920949E-03  1.096084E-02  3.780779E-01
   -11.5719  6.711980E-03  9.716560E-03  2.892356E-01
   -11.4716  6.571649E-03  8.790779E-03  2.269269E-01
   -11.3712  6.493655E-03  8.079740E-03  1.822097E-01
   -11.2709  6.474231E-03  7.518570E-03  1.493523E-01
   -11.1706  6.512300E-03  7.067575E-03  1.246622E-01
   -11.0702  6.608543E-03  6.701693E-03  1.057244E-01
   -10.9699  6.765943E-03  6.404474E-03  9.092421E-02
   -10.8696  6.989120E-03  6.164610E-03  7.916319E-02
   -10.7692  7.285556E-03  5.974606E-03  6.967457E-02
   -10.6689  7.665509E-03  5.828775E-03  6.191575E-02
   -10.5686  8.142498E-03  5.723503E-03  5.549416E-02
   -10.4682  8.734824E-03  5.656253E-03  5.012031E-02
   -10.3679  9.465632E-03  5.625564E-03  4.557991E-02
   -10.2676  1.036638E-02  5.630928E-03  4.170941E-02
   -10.1672  1.147718E-02  5.672831E-03  3.838439E-02
   -10.0669  1.285020E-02  5.752459E-03  3.550764E-02
    -9.9666  1.455294E-02  5.872006E-03  3.300296E-02
    -9.8662  1.667244E-02  6.034444E-03  3.080993E-02
    -9.7659  1.931587E-02  6.244151E-03  2.888049E-02
    -9.6656  2.261326E-02  6.506715E-03  2.717561E-02
    -9.5652  2.670409E-02  6.829317E-03  2.566388E-02
    -9.4649  3.170977E-02  7.220819E-03  2.431909E-02
    -9.3645  3.766961E-02  7.693134E-03  2.312046E-02
    -9.2642  4.442268E-02  8.260683E-03  2.204983E-02
    -9.1639  5.146574E-02  8.942178E-03  2.109329E-02
    -9.0635  5.787443E-02  9.761015E-03  2.023875E-02
    -8.9632  6.248443E-02  1.074748E-02  1.947609E-02
    -8.8629  6.438862E-02  1.193985E-02  1.879744E-02
    -8.7625  6.343019E-02  1.338792E-02  1.819624E-02
    -8.6622  6.024128E-02  1.515540E-02  1.766739E-02
    -8.5619  5.580942E-02  1.732465E-02  1.720690E-02
    -8.4615  5.102249E-02  2.000042E-02  1.681191E-02
    -8.3612  4.646212E-02  2.331690E-02  1.648124E-02
    -8.2609  4.241977E-02  2.743831E-02  1.621446E-02
    -8.1605  3.899229E-02  3.256071E-02  1.601248E-02
    -8.0602  3.617489E-02  3.889481E-02  1.587769E-02
    -7.9599  3.391649E-02  4.662843E-02  1.581426E-02
    -7.8595  3.215432E-02  5.584044E-02  1.582842E-02
    -7.7592  3.082750E-02  6.635853E-02  1.592848E-02
    -7.6589  2.988502E-02  7.758536E-02  1.612632E-02
    -7.5585  2.928683E-02  8.839376E-02  1.643721E-02
    -7.4582  2.900407E-02  9.729773E-02  1.688148E-02
    -7.3579  2.901803E-02  1.029689E-01  1.748577E-02
    -7.2575  2.932052E-02  1.048340E-01  1.828407E-02
    -7.1572  2.991211E-02  1.032877E-01  1.931887E-02
    -7.0569  3.080199E-02  9.936358E-02  2.064145E-02
    -6.9565  3.201114E-02  9.421316E-02  2.230680E-02
    -6.8562  3.356903E-02  8.875246E-02  2.436158E-02
    -6.7559  3.551771E-02  8.356004E-02  2.681169E-02
    -6.6555  3.791262E-02  7.893269E-02  2.955864E-02
    -6.5552  4.082548E-02  7.497687E-02  3.230575E-02
    -6.4548  4.434820E-02  7.168976E-02  3.448995E-02
    -6.3545  4.859444E-02  6.901259E-02  3.539404E-02
    -6.2542  5.370766E-02  6.686144E-02  3.454335E-02
    -6.1538  5.986239E-02  6.514551E-02  3.210625E-02
    -6.0535  6.726924E-02  6.377580E-02  2.880475E-02
    -5.9532  7.617579E-02  6.266866E-02  2.542266E-02
    -5.8528  8.685954E-02  6.175100E-02  2.245661E-02
    -5.7525  9.960313E-02  6.096058E-02  2.009167E-02
    -5.6522  1.146524E-01  6.024966E-02  1.832605E-02
    -5.5518  1.321203E-01  5.958631E-02  1.708445E-02
    -5.4515  1.518502E-01  5.895497E-02  1.627725E-02
    -5.3512  1.732309E-01  5.835764E-02  1.582598E-02
    -5.2508  1.950195E-01  5.781251E-02  1.566947E-02
    -5.1505  2.153220E-01  5.735317E-02  1.576262E-02
    -5.0502  2.318725E-01  5.702708E-02  1.607357E-02
    -4.9498  2.426550E-01  5.689370E-02  1.658059E-02
    -4.8495  2.466091E-01  5.702324E-02  1.726921E-02
    -4.7492  2.439874E-01  5.749702E-02  1.813063E-02
    -4.6488  2.361428E-01  5.840712E-02  1.916117E-02
    -4.5485  2.249321E-01  5.985813E-02  2.036191E-02
    -4.4482  2.121356E-01  6.196913E-02  2.174010E-02
    -4.3478  1.991344E-01  6.487268E-02  2.330987E-02
    -4.2475  1.868388E-01  6.871330E-02  2.509371E-02
    -4.1472  1.757642E-01  7.364190E-02  2.712284E-02
    -4.0468  1.661510E-01  7.979630E-02  2.943588E-02
    -3.9465  1.580693E-01  8.727878E-02  3.207893E-02
    -3.8462  1.514985E-01  9.610891E-02  3.510148E-02
    -3.7458  1.463749E-01  1.061700E-01  3.855392E-02
    -3.6455  1.426173E-01  1.171608E-01  4.248348E-02
    -3.5452  1.401378E-01  1.285680E-01  4.692945E-02
    -3.4448  1.388413E-01  1.397075E-01  5.192043E-02
    -3.3445  1.386197E-01  1.498425E-01  5.747774E-02
    -3.2441  1.393466E-01  1.583473E-01  6.362675E-02
    -3.1438  1.408711E-01  1.648456E-01  7.041707E-02
    -3.0435  1.430196E-01  1.692630E-01  7.794460E-02
    -2.9431  1.455975E-01  1.717644E-01  8.634869E-02
    -2.8428  1.483925E-01  1.726331E-01  9.576844E-02
    -2.7425  1.511812E-01  1.721560E-01  1.062573E-01
    -2.6421  1.537310E-01  1.705630E-01  1.176675E-01
    -2.5418  1.558074E-01  1.680296E-01  1.295557E-01
    -2.4415  1.571810E-01  1.647271E-01  1.411469E-01
    -2.3411  1.576429E-01  1.608663E-01  1.514123E-01
    -2.2408  1.570217E-01  1.567072E-01  1.592698E-01
    -2.1405  1.552017E-01  1.525322E-01  1.638661E-01
    -2.0401  1.521413E-01  1.485969E-01  1.648210E-01
    -1.9398  1.478784E-01  1.450998E-01  1.623075E-01
    -1.8395  1.425296E-01  1.421717E-01  1.569437E-01
    -1.7391  1.362749E-01  1.398815E-01  1.495709E-01
    -1.6388  1.293368E-01  1.382549E-01  1.410355E-01
    -1.5385  1.219524E-01  1.372895E-01  1.320472E-01
    -1.4381  1.143524E-01  1.369688E-01  1.231261E-01
    -1.3378  1.067412E-01  1.372704E-01  1.146098E-01
    -1.2375  9.928766E-02  1.381722E-01  1.066900E-01
    -1.1371  9.211967E-02  1.396540E-01  9.945377E-02
    -1.0368  8.532661E-02  1.417007E-01  9.292092E-02
    -0.9365  7.896408E-02  1.442999E-01  8.707073E-02
    -0.8361  7.305831E-02  1.474441E-01  8.185818E-02
    -0.7358  6.761613E-02  1.511273E-01  7.723104E-02
    -0.6355  6.262734E-02  1.553460E-01  7.313331E-02
    -0.5351  5.807234E-02  1.600964E-01  6.951105E-02
    -0.4348  5.392530E-02  1.653730E-01  6.631276E-02
    -0.3344  5.015641E-02  1.711681E-01  6.349537E-02
    -0.2341  4.673478E-02  1.774689E-01  6.101701E-02
    -0.1338  4.362990E-02  1.842558E-01  5.884160E-02
    -0.0334  4.081266E-02  1.915007E-01  5.693755E-02
     0.0669  3.825496E-02  1.991673E-01  5.527657E-02
     0.1672  3.593136E-02  2.072076E-01  5.383374E-02
     0.2676  3.381879E-02  2.155625E-01  5.258681E-02
     0.3679  3.189568E-02  2.241645E-01  5.151529E-02
     0.4682  3.014296E-02  2.329356E-01  5.060033E-02
     0.5686  2.854338E-02  2.417935E-01  4.982429E-02
     0.6689  2.708175E-02  2.506525E-01  4.917065E-02
     0.7692  2.574412E-02  2.594298E-01  4.862364E-02
     0.8696  2.451829E-02  2.680494E-01  4.816825E-02
     0.9699  2.339333E-02  2.764460E-01  4.779069E-02
     1.0702  2.235948E-02  2.845692E-01  4.747836E-02
     1.1706  2.140811E-02  2.923854E-01  4.722009E-02
     1.2709  2.053136E-02  2.998795E-01  4.700658E-02
     1.3712  1.972242E-02  3.070510E-01  4.683061E-02
     1.4716  1.897510E-02  3.139156E-01  4.668659E-02
     1.5719  1.828385E-02  3.204982E-01  4.657136E-02
     1.6722  1.764376E-02  3.268284E-01  4.648322E-02
     1.7726  1.705042E-02  3.329384E-01  4.642206E-02
     1.8729  1.649985E-02  3.388547E-01  4.638872E-02
     1.9732  1.598843E-02  3.445962E-01  4.638509E-02
     2.0736  1.551305E-02  3.501675E-01  4.641324E-02
     2.1739  1.507072E-02  3.555583E-01  4.647543E-02
     2.2742  1.465890E-02  3.607404E-01  4.657400E-02
     2.3746  1.427522E-02  3.656653E-01  4.671093E-02
     2.4749  1.391753E-02  3.702660E-01  4.688795E-02
     2.5753  1.358392E-02  3.744564E-01  4.710638E-02
     2.6756  1.327263E-02  3.781354E-01  4.736737E-02
     2.7759  1.298207E-02  3.811903E-01  4.767135E-02
     2.8763  1.271080E-02  3.835026E-01  4.801875E-02
     2.9766  1.245754E-02  3.849539E-01  4.840955E-02
     3.0769  1.222102E-02  3.854342E-01  4.884349E-02
     3.1773  1.200023E-02  3.848495E-01  4.932019E-02
     3.2776  1.179408E-02  3.831279E-01  4.983885E-02
     3.3779  1.160170E-02  3.802273E-01  5.039881E-02
     3.4783  1.142226E-02  3.761378E-01  5.099914E-02
     3.5786  1.125493E-02  3.708854E-01  5.163877E-02
     3.6789  1.109909E-02  3.645298E-01  5.231681E-02
     3.7793  1.095407E-02  3.571603E-01  5.303225E-02
     3.8796  1.081924E-02  3.488934E-01  5.378392E-02
     3.9799  1.069408E-02  3.398624E-01  5.457095E-02
     4.0803  1.057809E-02  3.302128E-01  5.539241E-02
     4.1806  1.047076E-02  3.200935E-01  5.624745E-02
     4.2809  1.037171E-02  3.096503E-01  5.713537E-02
     4.3813  1.028052E-02  2.990204E-01  5.805566E-02
     4.4816  1.019683E-02  2.883296E-01  5.900790E-02
     4.5819  1.012028E-02  2.776875E-01  5.999190E-02
     4.6823  1.005058E-02  2.671892E-01  6.100751E-02
     4.7826  9.987435E-03  2.569117E-01  6.205504E-02
     4.8829  9.930577E-03  2.469175E-01  6.313495E-02
     4.9833  9.879761E-03  2.372537E-01  6.424774E-02
     5.0836  9.834691E-03  2.279545E-01  6.539438E-02
     5.1839  9.795239E-03  2.190431E-01  6.657598E-02
     5.2843  9.761176E-03  2.105327E-01  6.779396E-02
     5.3846  9.732265E-03  2.024285E-01  6.904985E-02
     5.4849  9.708436E-03  1.947302E-01  7.034553E-02
     5.5853  9.689400E-03  1.874310E-01  7.168320E-02
     5.6856  9.675095E-03  1.805221E-01  7.306506E-02
     5.7860  9.665337E-03  1.739903E-01  7.449370E-02
     5.8863  9.660014E-03  1.678212E-01  7.597188E-02
     5.9866  9.658959E-03  1.619992E-01  7.750249E-02
     6.0870  9.662106E-03  1.565082E-01  7.908860E-02
     6.1873  9.669305E-03  1.513304E-01  8.073358E-02
     6.2876  9.680471E-03  1.464494E-01  8.244081E-02
     6.3880  9.695511E-03  1.418488E-01  8.421376E-02
     6.4883  9.714325E-03  1.375122E-01  8.605603E-02
     6.5886  9.736781E-03  1.334238E-01  8.797153E-02
     6.6890  9.762829E-03  1.295690E-01  8.996365E-02
     6.7893  9.792379E-03  1.259336E-01  9.203634E-02
     6.8896  9.825336E-03  1.225037E-01  9.419339E-02
     6.9900  9.861633E-03  1.192669E-01  9.643838E-02
     7.0903  9.901197E-03  1.162111E-01  9.877484E-02
     7.1906  9.943948E-03  1.133250E-01  1.012063E-01
     7.2910  9.989799E-03  1.105981E-01  1.037357E-01
     7.3913  1.003868E-02  1.080206E-01  1.063661E-01
     7.4916  1.009053E-02  1.055830E-01  1.091003E-01
     7.5920  1.014521E-02  1.032767E-01  1.119402E-01
     7.6923  1.020274E-02  1.010938E-01  1.148874E-01
     7.7926  1.026297E-02  9.902652E-02  1.179435E-01
     7.8930  1.032587E-02  9.706792E-02  1.211085E-01
     7.9933  1.039126E-02  9.521144E-02  1.243821E-01
     8.0936  1.045918E-02  9.345085E-02  1.277632E-01
     8.1940  1.052949E-02  9.178067E-02  1.312494E-01
     8.2943  1.060208E-02  9.019547E-02  1.348374E-01
     8.3946  1.067688E-02  8.869020E-02  1.385227E-01
     8.4950  1.075380E-02  8.726031E-02  1.422991E-01
     8.5953  1.083272E-02  8.590128E-02  1.461594E-01
     8.6957  1.091354E-02  8.460940E-02  1.500944E-01
     8.7960  1.099616E-02  8.338043E-02  1.540937E-01
     8.8963  1.108045E-02  8.221115E-02  1.581447E-01
     8.9967  1.116631E-02  8.109810E-02  1.622336E-01
     9.0970  1.125360E-02  8.003816E-02  1.663444E-01
     9.1973  1.134221E-02  7.902859E-02  1.704596E-01
     9.2977  1.143197E-02  7.806644E-02  1.745604E-01
     9.3980  1.152279E-02  7.714912E-02  1.786263E-01
     9.4983  1.161447E-02  7.627437E-02  1.826354E-01
     9.5987  1.170690E-02  7.543993E-02  1.865647E-01
     9.6990  1.179995E-02  7.464355E-02  1.903915E-01
     9.7993  1.189340E-02  7.388332E-02  1.940914E-01
     9.8997  1.198711E-02  7.315729E-02  1.976410E-01
    10.0000  1.208095E-02  7.246378E-02  2.010171E-01
